        2-nd order single ODE 
     Method: Runge-Kutta 4th order
    t       x(t)        v(t)        energy
   0.00000  -2.50000   6.00000  21.12500
   0.01000  -2.43988   6.02470  21.12500
   0.02000  -2.37951   6.04880  21.12500
   0.03000  -2.31890   6.07229  21.12500
   0.04000  -2.25806   6.09517  21.12500
   0.05000  -2.19700   6.11745  21.12500
   0.06000  -2.13572   6.13911  21.12500
   0.07000  -2.07422   6.16016  21.12500
   0.08000  -2.01252   6.18060  21.12500
   0.09000  -1.95061   6.20041  21.12500
   0.10000  -1.88851   6.21961  21.12500
   0.11000  -1.82622   6.23818  21.12500
   0.12000  -1.76375   6.25613  21.12500
   0.13000  -1.70110   6.27346  21.12500
   0.14000  -1.63828   6.29015  21.12500
   0.15000  -1.57530   6.30622  21.12500
   0.16000  -1.51216   6.32166  21.12500
   0.17000  -1.44887   6.33646  21.12500
   0.18000  -1.38543   6.35064  21.12500
   0.19000  -1.32186   6.36417  21.12500
   0.20000  -1.25815   6.37707  21.12500
   0.21000  -1.19432   6.38934  21.12500
   0.22000  -1.13037   6.40096  21.12500
   0.23000  -1.06630   6.41194  21.12500
   0.24000  -1.00213   6.42228  21.12500
   0.25000  -0.93786   6.43198  21.12500
   0.26000  -0.87349   6.44104  21.12500
   0.27000  -0.80904   6.44945  21.12500
   0.28000  -0.74450   6.45722  21.12500
   0.29000  -0.67990   6.46434  21.12500
   0.30000  -0.61522   6.47082  21.12500
   0.31000  -0.55048   6.47665  21.12500
   0.32000  -0.48569   6.48183  21.12500
   0.33000  -0.42085   6.48636  21.12500
   0.34000  -0.35596   6.49025  21.12500
   0.35000  -0.29104   6.49348  21.12500
   0.36000  -0.22610   6.49607  21.12500
   0.37000  -0.16113   6.49800  21.12500
   0.38000  -0.09614   6.49929  21.12500
   0.39000  -0.03114   6.49993  21.12500
   0.40000   0.03386   6.49991  21.12500
   0.41000   0.09885   6.49925  21.12500
   0.42000   0.16384   6.49793  21.12500
   0.43000   0.22881   6.49597  21.12500
   0.44000   0.29376   6.49336  21.12500
   0.45000   0.35868   6.49010  21.12500
   0.46000   0.42356   6.48619  21.12500
   0.47000   0.48840   6.48163  21.12500
   0.48000   0.55319   6.47642  21.12500
   0.49000   0.61792   6.47056  21.12500
   0.50000   0.68260   6.46406  21.12500
   0.51000   0.74720   6.45691  21.12500
   0.52000   0.81173   6.44912  21.12500
   0.53000   0.87618   6.44068  21.12500
   0.54000   0.94054   6.43159  21.12500
   0.55000   1.00481   6.42187  21.12500
   0.56000   1.06898   6.41150  21.12500
   0.57000   1.13304   6.40049  21.12500
   0.58000   1.19699   6.38884  21.12500
   0.59000   1.26081   6.37655  21.12500
   0.60000   1.32452   6.36362  21.12500
   0.61000   1.38808   6.35006  21.12500
   0.62000   1.45151   6.33586  21.12500
   0.63000   1.51480   6.32103  21.12500
   0.64000   1.57793   6.30556  21.12500
   0.65000   1.64091   6.28947  21.12500
   0.66000   1.70372   6.27275  21.12500
   0.67000   1.76636   6.25539  21.12500
   0.68000   1.82883   6.23742  21.12500
   0.69000   1.89111   6.21882  21.12500
   0.70000   1.95320   6.19960  21.12500
   0.71000   2.01510   6.17976  21.12500
   0.72000   2.07679   6.15930  21.12500
   0.73000   2.13828   6.13822  21.12500
   0.74000   2.19956   6.11653  21.12500
   0.75000   2.26061   6.09423  21.12500
   0.76000   2.32144   6.07132  21.12500
   0.77000   2.38203   6.04780  21.12500
   0.78000   2.44239   6.02368  21.12500
   0.79000   2.50251   5.99896  21.12500
   0.80000   2.56237   5.97363  21.12500
   0.81000   2.62198   5.94771  21.12500
   0.82000   2.68132   5.92119  21.12500
   0.83000   2.74040   5.89408  21.12500
   0.84000   2.79920   5.86638  21.12500
   0.85000   2.85772   5.83810  21.12500
   0.86000   2.91596   5.80923  21.12500
   0.87000   2.97391   5.77978  21.12500
   0.88000   3.03156   5.74975  21.12500
   0.89000   3.08890   5.71915  21.12500
   0.90000   3.14594   5.68798  21.12500
   0.91000   3.20266   5.65623  21.12500
   0.92000   3.25906   5.62393  21.12500
   0.93000   3.31513   5.59105  21.12500
   0.94000   3.37088   5.55762  21.12500
   0.95000   3.42629   5.52364  21.12500
   0.96000   3.48135   5.48910  21.12500
   0.97000   3.53607   5.45401  21.12500
   0.98000   3.59043   5.41838  21.12500
   0.99000   3.64443   5.38220  21.12500
   1.00000   3.69807   5.34549  21.12500
   1.01000   3.75134   5.30824  21.12500
   1.02000   3.80423   5.27047  21.12500
   1.03000   3.85675   5.23216  21.12500
   1.04000   3.90887   5.19333  21.12500
   1.05000   3.96061   5.15398  21.12500
   1.06000   4.01195   5.11412  21.12500
   1.07000   4.06289   5.07375  21.12500
   1.08000   4.11343   5.03286  21.12500
   1.09000   4.16355   4.99148  21.12500
   1.10000   4.21325   4.94960  21.12500
   1.11000   4.26254   4.90722  21.12500
   1.12000   4.31140   4.86435  21.12500
   1.13000   4.35982   4.82099  21.12500
   1.14000   4.40781   4.77715  21.12500
   1.15000   4.45536   4.73283  21.12500
   1.16000   4.50247   4.68805  21.12500
   1.17000   4.54912   4.64279  21.12500
   1.18000   4.59532   4.59706  21.12500
   1.19000   4.64106   4.55088  21.12500
   1.20000   4.68634   4.50424  21.12500
   1.21000   4.73115   4.45716  21.12500
   1.22000   4.77548   4.40962  21.12500
   1.23000   4.81934   4.36165  21.12500
   1.24000   4.86271   4.31324  21.12500
   1.25000   4.90560   4.26440  21.12500
   1.26000   4.94800   4.21513  21.12500
   1.27000   4.98990   4.16544  21.12500
   1.28000   5.03131   4.11533  21.12500
   1.29000   5.07221   4.06481  21.12500
   1.30000   5.11260   4.01389  21.12500
   1.31000   5.15248   3.96256  21.12500
   1.32000   5.19185   3.91084  21.12500
   1.33000   5.23070   3.85873  21.12500
   1.34000   5.26903   3.80623  21.12500
   1.35000   5.30682   3.75335  21.12500
   1.36000   5.34409   3.70009  21.12500
   1.37000   5.38082   3.64647  21.12500
   1.38000   5.41702   3.59248  21.12500
   1.39000   5.45267   3.53813  21.12500
   1.40000   5.48778   3.48343  21.12500
   1.41000   5.52234   3.42838  21.12500
   1.42000   5.55635   3.37298  21.12500
   1.43000   5.58980   3.31725  21.12500
   1.44000   5.62269   3.26119  21.12500
   1.45000   5.65502   3.20480  21.12500
   1.46000   5.68679   3.14809  21.12500
   1.47000   5.71798   3.09107  21.12500
   1.48000   5.74861   3.03373  21.12500
   1.49000   5.77866   2.97610  21.12500
   1.50000   5.80813   2.91816  21.12500
   1.51000   5.83702   2.85993  21.12500
   1.52000   5.86532   2.80142  21.12500
   1.53000   5.89305   2.74263  21.12500
   1.54000   5.92018   2.68356  21.12500
   1.55000   5.94672   2.62423  21.12500
   1.56000   5.97266   2.56463  21.12500
   1.57000   5.99801   2.50478  21.12500
   1.58000   6.02275   2.44467  21.12500
   1.59000   6.04690   2.38432  21.12500
   1.60000   6.07044   2.32374  21.12500
   1.61000   6.09337   2.26292  21.12500
   1.62000   6.11570   2.20187  21.12500
   1.63000   6.13741   2.14061  21.12500
   1.64000   6.15851   2.07913  21.12500
   1.65000   6.17899   2.01744  21.12500
   1.66000   6.19886   1.95555  21.12500
   1.67000   6.21810   1.89346  21.12500
   1.68000   6.23673   1.83119  21.12500
   1.69000   6.25473   1.76873  21.12500
   1.70000   6.27210   1.70610  21.12500
   1.71000   6.28885   1.64329  21.12500
   1.72000   6.30497   1.58032  21.12500
   1.73000   6.32045   1.51719  21.12500
   1.74000   6.33531   1.45391  21.12500
   1.75000   6.34953   1.39049  21.12500
   1.76000   6.36312   1.32693  21.12500
   1.77000   6.37607   1.26323  21.12500
   1.78000   6.38838   1.19941  21.12500
   1.79000   6.40006   1.13546  21.12500
   1.80000   6.41109   1.07141  21.12500
   1.81000   6.42148   1.00724  21.12500
   1.82000   6.43124   0.94298  21.12500
   1.83000   6.44034   0.87862  21.12500
   1.84000   6.44881   0.81417  21.12500
   1.85000   6.45663   0.74965  21.12500
   1.86000   6.46380   0.68504  21.12500
   1.87000   6.47033   0.62037  21.12500
   1.88000   6.47621   0.55564  21.12500
   1.89000   6.48144   0.49085  21.12500
   1.90000   6.48602   0.42601  21.12500
   1.91000   6.48996   0.36113  21.12500
   1.92000   6.49325   0.29622  21.12500
   1.93000   6.49588   0.23127  21.12500
   1.94000   6.49787   0.16630  21.12500
   1.95000   6.49921   0.10131  21.12500
   1.96000   6.49990   0.03632  21.12500
   1.97000   6.49994  -0.02868  21.12500
   1.98000   6.49932  -0.09368  21.12500
   1.99000   6.49806  -0.15867  21.12500
   2.00000   6.49615  -0.22364  21.12500
   2.01000   6.49359  -0.28859  21.12500
   2.02000   6.49038  -0.35351  21.12500
   2.03000   6.48652  -0.41839  21.12500
   2.04000   6.48201  -0.48324  21.12500
   2.05000   6.47686  -0.54803  21.12500
   2.06000   6.47105  -0.61277  21.12500
   2.07000   6.46460  -0.67745  21.12500
   2.08000   6.45750  -0.74206  21.12500
   2.09000   6.44976  -0.80660  21.12500
   2.10000   6.44137  -0.87105  21.12500
   2.11000   6.43234  -0.93542  21.12500
   2.12000   6.42266  -0.99970  21.12500
   2.13000   6.41235  -1.06387  21.12500
   2.14000   6.40139  -1.12794  21.12500
   2.15000   6.38979  -1.19190  21.12500
   2.16000   6.37755  -1.25574  21.12500
   2.17000   6.36467  -1.31945  21.12500
   2.18000   6.35116  -1.38303  21.12500
   2.19000   6.33701  -1.44647  21.12500
   2.20000   6.32223  -1.50977  21.12500
   2.21000   6.30682  -1.57291  21.12500
   2.22000   6.29077  -1.63590  21.12500
   2.23000   6.27410  -1.69872  21.12500
   2.24000   6.25680  -1.76138  21.12500
   2.25000   6.23887  -1.82386  21.12500
   2.26000   6.22032  -1.88615  21.12500
   2.27000   6.20115  -1.94826  21.12500
   2.28000   6.18136  -2.01018  21.12500
   2.29000   6.16095  -2.07189  21.12500
   2.30000   6.13992  -2.13339  21.12500
   2.31000   6.11828  -2.19468  21.12500
   2.32000   6.09603  -2.25576  21.12500
   2.33000   6.07317  -2.31660  21.12500
   2.34000   6.04970  -2.37722  21.12500
   2.35000   6.02562  -2.43759  21.12500
   2.36000   6.00095  -2.49773  21.12500
   2.37000   5.97567  -2.55761  21.12500
   2.38000   5.94979  -2.61724  21.12500
   2.39000   5.92333  -2.67661  21.12500
   2.40000   5.89626  -2.73570  21.12500
   2.41000   5.86861  -2.79453  21.12500
   2.42000   5.84037  -2.85307  21.12500
   2.43000   5.81155  -2.91133  21.12500
   2.44000   5.78215  -2.96930  21.12500
   2.45000   5.75217  -3.02698  21.12500
   2.46000   5.72161  -3.08434  21.12500
   2.47000   5.69048  -3.14141  21.12500
   2.48000   5.65878  -3.19815  21.12500
   2.49000   5.62652  -3.25458  21.12500
   2.50000   5.59369  -3.31068  21.12500
   2.51000   5.56031  -3.36645  21.12500
   2.52000   5.52636  -3.42189  21.12500
   2.53000   5.49187  -3.47698  21.12500
   2.54000   5.45683  -3.53172  21.12500
   2.55000   5.42124  -3.58611  21.12500
   2.56000   5.38510  -3.64014  21.12500
   2.57000   5.34843  -3.69381  21.12500
   2.58000   5.31123  -3.74711  21.12500
   2.59000   5.27349  -3.80003  21.12500
   2.60000   5.23523  -3.85258  21.12500
   2.61000   5.19644  -3.90474  21.12500
   2.62000   5.15714  -3.95651  21.12500
   2.63000   5.11731  -4.00788  21.12500
   2.64000   5.07698  -4.05885  21.12500
   2.65000   5.03614  -4.10942  21.12500
   2.66000   4.99479  -4.15957  21.12500
   2.67000   4.95295  -4.20931  21.12500
   2.68000   4.91061  -4.25863  21.12500
   2.69000   4.86778  -4.30752  21.12500
   2.70000   4.82446  -4.35598  21.12500
   2.71000   4.78066  -4.40401  21.12500
   2.72000   4.73638  -4.45159  21.12500
   2.73000   4.69163  -4.49873  21.12500
   2.74000   4.64641  -4.54543  21.12500
   2.75000   4.60072  -4.59166  21.12500
   2.76000   4.55458  -4.63744  21.12500
   2.77000   4.50797  -4.68275  21.12500
   2.78000   4.46092  -4.72760  21.12500
   2.79000   4.41342  -4.77197  21.12500
   2.80000   4.36549  -4.81586  21.12500
   2.81000   4.31711  -4.85928  21.12500
   2.82000   4.26830  -4.90220  21.12500
   2.83000   4.21907  -4.94464  21.12500
   2.84000   4.16941  -4.98658  21.12500
   2.85000   4.11934  -5.02803  21.12500
   2.86000   4.06885  -5.06897  21.12500
   2.87000   4.01796  -5.10940  21.12500
   2.88000   3.96666  -5.14933  21.12500
   2.89000   3.91497  -5.18874  21.12500
   2.90000   3.86289  -5.22763  21.12500
   2.91000   3.81042  -5.26599  21.12500
   2.92000   3.75757  -5.30383  21.12500
   2.93000   3.70435  -5.34114  21.12500
   2.94000   3.65075  -5.37792  21.12500
   2.95000   3.59679  -5.41416  21.12500
   2.96000   3.54247  -5.44985  21.12500
   2.97000   3.48780  -5.48500  21.12500
   2.98000   3.43277  -5.51961  21.12500
   2.99000   3.37741  -5.55366  21.12500
   3.00000   3.32170  -5.58715  21.12500
   3.01000   3.26566  -5.62009  21.12500
   3.02000   3.20930  -5.65247  21.12500
   3.03000   3.15262  -5.68428  21.12500
   3.04000   3.09562  -5.71552  21.12500
   3.05000   3.03831  -5.74619  21.12500
   3.06000   2.98070  -5.77628  21.12500
   3.07000   2.92279  -5.80580  21.12500
   3.08000   2.86458  -5.83474  21.12500
   3.09000   2.80609  -5.86309  21.12500
   3.10000   2.74732  -5.89086  21.12500
   3.11000   2.68828  -5.91804  21.12500
   3.12000   2.62896  -5.94462  21.12500
   3.13000   2.56939  -5.97062  21.12500
   3.14000   2.50955  -5.99601  21.12500
   3.15000   2.44947  -6.02081  21.12500
   3.16000   2.38914  -6.04500  21.12500
   3.17000   2.32857  -6.06859  21.12500
   3.18000   2.26777  -6.09157  21.12500
   3.19000   2.20674  -6.11394  21.12500
   3.20000   2.14549  -6.13570  21.12500
   3.21000   2.08403  -6.15685  21.12500
   3.22000   2.02236  -6.17738  21.12500
   3.23000   1.96048  -6.19730  21.12500
   3.24000   1.89841  -6.21659  21.12500
   3.25000   1.83615  -6.23527  21.12500
   3.26000   1.77371  -6.25332  21.12500
   3.27000   1.71109  -6.27074  21.12500
   3.28000   1.64830  -6.28754  21.12500
   3.29000   1.58534  -6.30370  21.12500
   3.30000   1.52223  -6.31924  21.12500
   3.31000   1.45896  -6.33415  21.12500
   3.32000   1.39554  -6.34842  21.12500
   3.33000   1.33199  -6.36206  21.12500
   3.34000   1.26831  -6.37506  21.12500
   3.35000   1.20449  -6.38742  21.12500
   3.36000   1.14056  -6.39915  21.12500
   3.37000   1.07651  -6.41024  21.12500
   3.38000   1.01236  -6.42068  21.12500
   3.39000   0.94810  -6.43048  21.12500
   3.40000   0.88375  -6.43964  21.12500
   3.41000   0.81931  -6.44816  21.12500
   3.42000   0.75479  -6.45603  21.12500
   3.43000   0.69019  -6.46325  21.12500
   3.44000   0.62553  -6.46983  21.12500
   3.45000   0.56080  -6.47576  21.12500
   3.46000   0.49601  -6.48105  21.12500
   3.47000   0.43118  -6.48568  21.12500
   3.48000   0.36630  -6.48967  21.12500
   3.49000   0.30139  -6.49301  21.12500
   3.50000   0.23644  -6.49570  21.12500
   3.51000   0.17148  -6.49774  21.12500
   3.52000   0.10649  -6.49913  21.12500
   3.53000   0.04149  -6.49987  21.12500
   3.54000  -0.02350  -6.49996  21.12500
   3.55000  -0.08850  -6.49940  21.12500
   3.56000  -0.15349  -6.49819  21.12500
   3.57000  -0.21846  -6.49633  21.12500
   3.58000  -0.28342  -6.49382  21.12500
   3.59000  -0.34834  -6.49066  21.12500
   3.60000  -0.41323  -6.48685  21.12500
   3.61000  -0.47807  -6.48240  21.12500
   3.62000  -0.54287  -6.47729  21.12500
   3.63000  -0.60762  -6.47154  21.12500
   3.64000  -0.67230  -6.46514  21.12500
   3.65000  -0.73692  -6.45809  21.12500
   3.66000  -0.80146  -6.45040  21.12500
   3.67000  -0.86592  -6.44206  21.12500
   3.68000  -0.93030  -6.43308  21.12500
   3.69000  -0.99458  -6.42346  21.12500
   3.70000  -1.05877  -6.41319  21.12500
   3.71000  -1.12284  -6.40228  21.12500
   3.72000  -1.18681  -6.39073  21.12500
   3.73000  -1.25066  -6.37855  21.12500
   3.74000  -1.31438  -6.36572  21.12500
   3.75000  -1.37797  -6.35226  21.12500
   3.76000  -1.44142  -6.33816  21.12500
   3.77000  -1.50473  -6.32343  21.12500
   3.78000  -1.56789  -6.30807  21.12500
   3.79000  -1.63089  -6.29207  21.12500
   3.80000  -1.69373  -6.27545  21.12500
   3.81000  -1.75640  -6.25820  21.12500
   3.82000  -1.81889  -6.24032  21.12500
   3.83000  -1.88120  -6.22182  21.12500
   3.84000  -1.94332  -6.20270  21.12500
   3.85000  -2.00525  -6.18296  21.12500
   3.86000  -2.06698  -6.16260  21.12500
   3.87000  -2.12850  -6.14162  21.12500
   3.88000  -2.18981  -6.12003  21.12500
   3.89000  -2.25090  -6.09782  21.12500
   3.90000  -2.31177  -6.07501  21.12500
   3.91000  -2.37240  -6.05159  21.12500
   3.92000  -2.43280  -6.02756  21.12500
   3.93000  -2.49295  -6.00293  21.12500
   3.94000  -2.55285  -5.97770  21.12500
   3.95000  -2.61250  -5.95188  21.12500
   3.96000  -2.67189  -5.92545  21.12500
   3.97000  -2.73101  -5.89844  21.12500
   3.98000  -2.78985  -5.87084  21.12500
   3.99000  -2.84842  -5.84264  21.12500
   4.00000  -2.90671  -5.81387  21.12500
   4.01000  -2.96470  -5.78451  21.12500
   4.02000  -3.02239  -5.75458  21.12500
   4.03000  -3.07979  -5.72406  21.12500
   4.04000  -3.13687  -5.69298  21.12500
   4.05000  -3.19365  -5.66133  21.12500
   4.06000  -3.25010  -5.62911  21.12500
   4.07000  -3.30623  -5.59633  21.12500
   4.08000  -3.36202  -5.56299  21.12500
   4.09000  -3.41748  -5.52909  21.12500
   4.10000  -3.47260  -5.49464  21.12500
   4.11000  -3.52737  -5.45964  21.12500
   4.12000  -3.58179  -5.42409  21.12500
   4.13000  -3.63585  -5.38800  21.12500
   4.14000  -3.68955  -5.35137  21.12500
   4.15000  -3.74288  -5.31421  21.12500
   4.16000  -3.79583  -5.27652  21.12500
   4.17000  -3.84841  -5.23830  21.12500
   4.18000  -3.90060  -5.19955  21.12500
   4.19000  -3.95240  -5.16029  21.12500
   4.20000  -4.00380  -5.12050  21.12500
   4.21000  -4.05481  -5.08021  21.12500
   4.22000  -4.10540  -5.03941  21.12500
   4.23000  -4.15559  -4.99810  21.12500
   4.24000  -4.20537  -4.95630  21.12500
   4.25000  -4.25472  -4.91400  21.12500
   4.26000  -4.30364  -4.87121  21.12500
   4.27000  -4.35214  -4.82793  21.12500
   4.28000  -4.40020  -4.78417  21.12500
   4.29000  -4.44782  -4.73992  21.12500
   4.30000  -4.49500  -4.69521  21.12500
   4.31000  -4.54172  -4.65003  21.12500
   4.32000  -4.58800  -4.60438  21.12500
   4.33000  -4.63381  -4.55827  21.12500
   4.34000  -4.67916  -4.51170  21.12500
   4.35000  -4.72404  -4.46469  21.12500
   4.36000  -4.76845  -4.41722  21.12500
   4.37000  -4.81239  -4.36932  21.12500
   4.38000  -4.85584  -4.32098  21.12500
   4.39000  -4.89880  -4.27220  21.12500
   4.40000  -4.94128  -4.22300  21.12500
   4.41000  -4.98326  -4.17338  21.12500
   4.42000  -5.02475  -4.12334  21.12500
   4.43000  -5.06573  -4.07289  21.12500
   4.44000  -5.10620  -4.02203  21.12500
   4.45000  -5.14617  -3.97076  21.12500
   4.46000  -5.18562  -3.91910  21.12500
   4.47000  -5.22455  -3.86705  21.12500
   4.48000  -5.26296  -3.81462  21.12500
   4.49000  -5.30084  -3.76180  21.12500
   4.50000  -5.33819  -3.70860  21.12500
   4.51000  -5.37501  -3.65503  21.12500
   4.52000  -5.41129  -3.60110  21.12500
   4.53000  -5.44703  -3.54681  21.12500
   4.54000  -5.48223  -3.49216  21.12500
   4.55000  -5.51687  -3.43717  21.12500
   4.56000  -5.55097  -3.38183  21.12500
   4.57000  -5.58451  -3.32615  21.12500
   4.58000  -5.61749  -3.27014  21.12500
   4.59000  -5.64991  -3.21380  21.12500
   4.60000  -5.68176  -3.15714  21.12500
   4.61000  -5.71305  -3.10017  21.12500
   4.62000  -5.74377  -3.04288  21.12500
   4.63000  -5.77391  -2.98530  21.12500
   4.64000  -5.80347  -2.92741  21.12500
   4.65000  -5.83246  -2.86923  21.12500
   4.66000  -5.86086  -2.81076  21.12500
   4.67000  -5.88867  -2.75201  21.12500
   4.68000  -5.91589  -2.69299  21.12500
   4.69000  -5.94253  -2.63370  21.12500
   4.70000  -5.96857  -2.57414  21.12500
   4.71000  -5.99401  -2.51433  21.12500
   4.72000  -6.01885  -2.45426  21.12500
   4.73000  -6.04309  -2.39395  21.12500
   4.74000  -6.06673  -2.33340  21.12500
   4.75000  -6.08976  -2.27262  21.12500
   4.76000  -6.11218  -2.21161  21.12500
   4.77000  -6.13399  -2.15038  21.12500
   4.78000  -6.15519  -2.08893  21.12500
   4.79000  -6.17577  -2.02728  21.12500
   4.80000  -6.19573  -1.96542  21.12500
   4.81000  -6.21508  -1.90336  21.12500
   4.82000  -6.23380  -1.84112  21.12500
   4.83000  -6.25190  -1.77869  21.12500
   4.84000  -6.26937  -1.71608  21.12500
